Frecuencia (Hz)	volumen (dB)
86,132813	-117,342743
172,265625	-116,625381
258,398438	-115,489594
344,531250	-114,044113
430,664063	-112,262360
516,796875	-110,200333
602,929688	-107,500877
689,062500	-104,027481
775,195313	-98,432945
861,328125	-91,753944
947,460938	-83,949875
1033,593750	-75,710526
1119,726563	-67,389198
1205,859375	-58,563667
1291,992188	-49,562332
1378,125000	-42,723904
1464,257813	-39,391964
1550,390625	-38,710327
1636,523438	-38,588985
1722,656250	-38,767345
1808,789063	-39,158314
1894,921875	-39,189823
1981,054688	-39,267143
2067,187500	-39,503139
2153,320313	-39,757923
2239,453125	-40,075867
2325,585938	-40,151531
2411,718750	-40,262070
2497,851563	-40,305954
2583,984375	-40,359810
2670,117188	-40,891705
2756,250000	-41,966869
2842,382813	-43,993912
2928,515625	-47,273537
3014,648438	-51,228230
3100,781250	-55,583454
3186,914063	-59,611259
3273,046875	-63,614330
3359,179688	-67,539375
3445,312500	-70,941826
3531,445313	-73,755295
3617,578125	-76,960579
3703,710938	-79,809105
3789,843750	-82,580971
3875,976563	-84,919510
3962,109375	-87,244049
4048,242188	-89,713234
4134,375000	-92,377960
4220,507813	-94,312897
4306,640625	-96,251686
4392,773438	-98,286751
4478,906250	-100,458450
4565,039063	-102,305344
4651,171875	-104,066818
4737,304688	-105,814758
4823,437500	-107,774574
4909,570313	-109,426216
4995,703125	-111,128494
5081,835938	-112,619728
5167,968750	-114,274155
5254,101563	-115,944847
5340,234375	-117,474899
5426,367188	-118,945541
5512,500000	-120,305946
5598,632813	-121,619827
5684,765625	-122,602081
5770,898438	-123,939796
5857,031250	-125,415703
5943,164063	-126,731514
6029,296875	-127,955032
6115,429688	-129,207336
6201,562500	-130,403336
6287,695313	-131,360596
6373,828125	-132,579010
6459,960938	-133,824493
6546,093750	-135,052399
6632,226563	-135,903625
6718,359375	-137,222717
6804,492188	-138,234650
6890,625000	-139,060852
6976,757813	-140,140503
7062,890625	-141,049652
7149,023438	-141,699600
7235,156250	-142,900070
7321,289063	-143,664749
7407,421875	-144,538422
7493,554688	-145,253632
7579,687500	-146,164352
7665,820313	-146,649399
7751,953125	-147,708038
7838,085938	-147,973984
7924,218750	-148,940094
8010,351563	-149,633804
8096,484375	-149,935028
8182,617188	-150,681763
8268,750000	-151,295029
8354,882813	-151,723251
8441,015625	-152,186401
8527,148438	-152,539536
8613,281250	-153,241318
8699,414063	-153,596832
8785,546875	-154,143768
8871,679688	-154,580338
8957,812500	-154,972656
9043,945313	-155,432938
9130,078125	-155,753174
9216,210938	-156,182022
9302,343750	-156,499222
9388,476563	-156,822723
9474,609375	-157,207520
9560,742188	-157,578568
9646,875000	-157,874268
9733,007813	-158,195480
9819,140625	-158,595444
9905,273438	-158,803070
9991,406250	-159,116684
10077,539063	-159,445251
10163,671875	-159,819122
10249,804688	-159,989120
10335,937500	-160,324509
10422,070313	-160,604706
10508,203125	-160,882858
10594,335938	-161,159958
10680,468750	-161,428711
10766,601563	-161,704895
10852,734375	-161,961349
10938,867188	-162,232788
11025,000000	-162,489883
11111,132813	-162,743652
11197,265625	-162,983780
11283,398438	-163,240417
11369,531250	-163,533127
11455,664063	-163,733398
11541,796875	-163,973633
11627,929688	-164,232544
11714,062500	-164,441147
11800,195313	-164,702026
11886,328125	-164,940079
11972,460938	-165,144363
12058,593750	-165,390594
12144,726563	-165,642197
12230,859375	-165,860260
12316,992188	-166,075363
12403,125000	-166,280273
12489,257813	-166,528641
12575,390625	-166,685226
12661,523438	-166,931458
12747,656250	-167,179367
12833,789063	-167,343201
12919,921875	-167,553192
13006,054688	-167,759109
13092,187500	-167,984711
13178,320313	-168,230255
13264,453125	-168,421371
13350,585938	-168,638458
13436,718750	-168,892181
13522,851563	-169,042648
13608,984375	-169,273560
13695,117188	-169,459946
13781,250000	-169,690872
13867,382813	-169,863144
13953,515625	-170,072372
14039,648438	-170,336395
14125,781250	-170,494339
14211,914063	-170,704239
14298,046875	-170,868835
14384,179688	-171,133408
14470,312500	-171,283188
14556,445313	-171,517166
14642,578125	-171,654877
14728,710938	-171,878143
14814,843750	-172,033234
14900,976563	-172,289841
14987,109375	-172,448334
15073,242188	-172,571472
15159,375000	-172,848450
15245,507813	-172,978363
15331,640625	-173,241699
15417,773438	-173,343918
15503,906250	-173,616333
15590,039063	-173,755981
15676,171875	-173,957108
15762,304688	-174,061523
15848,437500	-174,336990
15934,570313	-174,528915
16020,703125	-174,685989
16106,835938	-174,855927
16192,968750	-175,015747
16279,101563	-175,227386
16365,234375	-175,441437
16451,367188	-175,638733
16537,500000	-175,875198
16623,632813	-176,067932
16709,765625	-176,217789
16795,898438	-176,418152
16882,031250	-176,625763
16968,164063	-176,805710
17054,296875	-176,962631
17140,429688	-177,201889
17226,562500	-177,296066
17312,695313	-177,525101
17398,828125	-177,696564
17484,960938	-177,867599
17571,093750	-178,192032
17657,226563	-178,265823
17743,359375	-178,450897
17829,492188	-178,600723
17915,625000	-178,826004
18001,757813	-178,832245
18087,890625	-179,147293
18174,023438	-179,288589
18260,156250	-179,512909
18346,289063	-179,556213
18432,421875	-179,885971
18518,554688	-179,955536
18604,687500	-180,203568
18690,820313	-180,382553
18776,953125	-180,530701
18863,085938	-180,658539
18949,218750	-180,966049
19035,351563	-181,055923
19121,484375	-181,041931
19207,617188	-180,781219
19293,750000	-180,960739
19379,882813	-180,816956
19466,015625	-181,024307
19552,148438	-180,825272
19638,281250	-181,352722
19724,414063	-181,472565
19810,546875	-181,209702
19896,679688	-181,550095
19982,812500	-181,374359
20068,945313	-181,535156
20155,078125	-181,181198
20241,210938	-181,215332
20327,343750	-181,379333
20413,476563	-181,364197
20499,609375	-181,417603
20585,742188	-181,891861
20671,875000	-183,447449
20758,007813	-184,729401
20844,140625	-185,254028
20930,273438	-185,225266
21016,406250	-185,654190
21102,539063	-185,548996
21188,671875	-185,818604
21274,804688	-186,077530
21360,937500	-185,889160
21447,070313	-186,261780
21533,203125	-186,242386
21619,335938	-186,439423
21705,468750	-186,327118
21791,601563	-186,274155
21877,734375	-186,591583
21963,867188	-186,548569
